File: CPB_NCs_TA_PumpSpectra.txt
Unit Serial No : EM0P1805-EU
Integration Time : 30 ms
Time Average: 1
Binning Average: 1
FFT Smoothing: 0%
Project Name : Project Name
Sample Name : 0003
Measurement No : 1
Measurement Time : 05/29/2014   15:45:22

Wavelength(nm)	Wavenumber(1/cm)	Intensity(Counts)
350.0000      	28571.4    	2451.33
352.5000      	28368.8    	2474.33
355.0000      	28169    	2439
357.5000      	27972    	2387.67
360.0000      	27777.8    	2443
362.5000      	27586.2    	2385.67
365.0000      	27397.3    	2523.33
367.5000      	27210.9    	2407.33
370.0000      	27027    	2503
372.5000      	26845.6    	2407.67
375.0000      	26666.7    	2480.67
377.5000      	26490.1    	2434.33
380.0000      	26315.8    	2559.67
382.5000      	26143.8    	2411.67
385.0000      	25974    	2440.67
387.5000      	25806.5    	2431.67
390.0000      	25641    	2554.67
392.5000      	25477.7    	2440
395.0000      	25316.5    	2465.67
397.5000      	25157.2    	2501.33
400.0000      	25000    	2728.67
402.5000      	24844.7    	5780.33
405.0000      	24691.4    	24551.7
407.5000      	24539.9    	43389.3
410.0000      	24390.2    	35317.7
412.5000      	24242.4    	11122.7
415.0000      	24096.4    	3435.67
417.5000      	23952.1    	2499
420.0000      	23809.5    	2389.33
422.5000      	23668.6    	2507.33
425.0000      	23529.4    	2459.33
427.5000      	23391.8    	2546
430.0000      	23255.8    	2434.67
432.5000      	23121.4    	2506.33
435.0000      	22988.5    	2421.67
437.5000      	22857.1    	2574.33
440.0000      	22727.3    	2434.67
442.5000      	22598.9    	2484.67
445.0000      	22471.9    	2423.33
447.5000      	22346.4    	2506.67
450.0000      	22222.2    	2437.67
452.5000      	22099.4    	2525
455.0000      	21978    	2404.67
457.5000      	21857.9    	2496
460.0000      	21739.1    	2416.67
462.5000      	21621.6    	2536
465.0000      	21505.4    	2409.67
467.5000      	21390.4    	2455.33
470.0000      	21276.6    	2475
472.5000      	21164    	2482
475.0000      	21052.6    	2478.67
477.5000      	20942.4    	2561.67
480.0000      	20833.3    	2520.67
482.5000      	20725.4    	2585
485.0000      	20618.6    	2607.33
487.5000      	20512.8    	2581
490.0000      	20408.2    	2589.67
492.5000      	20304.6    	2737.67
495.0000      	20202    	2799.33
497.5000      	20100.5    	3291.33
500.0000      	20000    	4881.67
502.5000      	19900.5    	6882.67
505.0000      	19802    	9628
507.5000      	19704.4    	12764.7
510.0000      	19607.8    	20529
512.5000      	19512.2    	31634.3
515.0000      	19417.5    	38159
517.5000      	19323.7    	34694.7
520.0000      	19230.8    	24175.3
522.5000      	19138.8    	14264.7
525.0000      	19047.6    	7865
527.5000      	18957.3    	5120.33
530.0000      	18867.9    	3776.33
532.5000      	18779.3    	2734.33
535.0000      	18691.6    	2635.67
537.5000      	18604.7    	2434.33
540.0000      	18518.5    	2523.67
542.5000      	18433.2    	2609
545.0000      	18348.6    	2877
547.5000      	18264.8    	2786
550.0000      	18181.8    	2641.33
552.5000      	18099.5    	2491.33
555.0000      	18018    	2563
557.5000      	17937.2    	2415
560.0000      	17857.1    	2482
562.5000      	17777.8    	2429.33
565.0000      	17699.1    	2528.67
567.5000      	17621.1    	2383.67
570.0000      	17543.9    	2487.33
572.5000      	17467.2    	2376
575.0000      	17391.3    	2483.33
577.5000      	17316    	2519.67
580.0000      	17241.4    	2666.33
582.5000      	17167.4    	2473.33
585.0000      	17094    	2525.33
587.5000      	17021.3    	2451.67
590.0000      	16949.2    	2617.67
592.5000      	16877.6    	2647
595.0000      	16806.7    	2921.33
597.5000      	16736.4    	2756
600.0000      	16666.7    	2729
602.5000      	16597.5    	2497.33
605.0000      	16528.9    	2508.67
607.5000      	16460.9    	2428.33
610.0000      	16393.4    	2559.67
612.5000      	16326.5    	2700.67
615.0000      	16260.2    	2674.33
617.5000      	16194.3    	2489.67
620.0000      	16129    	2541.33
622.5000      	16064.3    	2443.33
625.0000      	16000    	2506.67
627.5000      	15936.3    	2416.67
630.0000      	15873    	2503.67
632.5000      	15810.3    	2422.33
635.0000      	15748    	2509
637.5000      	15686.3    	2391
640.0000      	15625    	2444.67
642.5000      	15564.2    	2408.33
645.0000      	15503.9    	2448.67
647.5000      	15444    	2407.33
650.0000      	15384.6    	2438
652.5000      	15325.7    	2375.33
655.0000      	15267.2    	2505
657.5000      	15209.1    	2359.67
660.0000      	15151.5    	2491.33
662.5000      	15094.3    	2362
665.0000      	15037.6    	2513.33
667.5000      	14981.3    	2380
670.0000      	14925.4    	2489
672.5000      	14869.9    	2458.33
675.0000      	14814.8    	2486
677.5000      	14760.1    	2420.33
680.0000      	14705.9    	2524.67
682.5000      	14652    	2391.67
685.0000      	14598.5    	2412
687.5000      	14545.5    	2417.67
690.0000      	14492.8    	2465.33
692.5000      	14440.4    	2417.33
695.0000      	14388.5    	2473.67
697.5000      	14336.9    	2423.33
700.0000      	14285.7    	2432.67
702.5000      	14234.9    	2414.67
705.0000      	14184.4    	2492.33
707.5000      	14134.3    	2485.33
710.0000      	14084.5    	2428.33
712.5000      	14035.1    	2414.33
715.0000      	13986    	2414
717.5000      	13937.3    	2431.67
720.0000      	13888.9    	2455.33
722.5000      	13840.8    	2470.33
725.0000      	13793.1    	2388.67
727.5000      	13745.7    	2429.67
730.0000      	13698.6    	2424.67
732.5000      	13651.9    	2435.67
735.0000      	13605.4    	2433
737.5000      	13559.3    	2440
740.0000      	13513.5    	2390.67
742.5000      	13468    	2481
745.0000      	13422.8    	2424.67
747.5000      	13377.9    	2479.33
750.0000      	13333.3    	2408.33
752.5000      	13289    	2482
755.0000      	13245    	2359
757.5000      	13201.3    	2509.33
760.0000      	13157.9    	2391.33
762.5000      	13114.8    	2528.33
765.0000      	13071.9    	2404.67
767.5000      	13029.3    	2488
770.0000      	12987    	2367
772.5000      	12945    	2507
775.0000      	12903.2    	2388
777.5000      	12861.7    	2514.67
780.0000      	12820.5    	2425.67
782.5000      	12779.6    	2503.67
785.0000      	12738.9    	2409.33
787.5000      	12698.4    	2499.67
790.0000      	12658.2    	2353
792.5000      	12618.3    	2484
795.0000      	12578.6    	2364.33
797.5000      	12539.2    	2537.67
800.0000      	12500    	2427.67
802.5000      	12461.1    	2437.67
805.0000      	12422.4    	2436
807.5000      	12383.9    	2525.33
810.0000      	12345.7    	2857.67
812.5000      	12307.7    	3265.33
815.0000      	12269.9    	3642.33
817.5000      	12232.4    	3689.33
820.0000      	12195.1    	3622.33
822.5000      	12158.1    	3241.33
825.0000      	12121.2    	2903.33
827.5000      	12084.6    	2560
830.0000      	12048.2    	2509
832.5000      	12012    	2365.67
835.0000      	11976    	2403.67
837.5000      	11940.3    	2410
840.0000      	11904.8    	2403
842.5000      	11869.4    	2445.33
845.0000      	11834.3    	2454.67
847.5000      	11799.4    	2388.67
850.0000      	11764.7    	2445
852.5000      	11730.2    	2393.33
855.0000      	11695.9    	2475.33
857.5000      	11661.8    	2402.67
860.0000      	11627.9    	2496.67
862.5000      	11594.2    	2326
865.0000      	11560.7    	2472.33
867.5000      	11527.4    	2384.33
870.0000      	11494.3    	2483.67
872.5000      	11461.3    	2462
875.0000      	11428.6    	2503.33
877.5000      	11396    	2399.33
880.0000      	11363.6    	2475.33
882.5000      	11331.4    	2495.33
885.0000      	11299.4    	2342
887.5000      	11267.6    	2417.33
890.0000      	11236    	2392.33
892.5000      	11204.5    	2496.67
895.0000      	11173.2    	2369
897.5000      	11142.1    	2410
900.0000      	11111.1    	2406
902.5000      	11080.3    	2498.67
905.0000      	11049.7    	2389
907.5000      	11019.3    	2496
910.0000      	10989    	2396.67
912.5000      	10958.9    	2484.33
915.0000      	10929    	2379.33
917.5000      	10899.2    	2518.33
920.0000      	10869.6    	2373.67
922.5000      	10840.1    	2510.33
925.0000      	10810.8    	2408.33
927.5000      	10781.7    	2492.67
930.0000      	10752.7    	2377.33
932.5000      	10723.9    	2469
935.0000      	10695.2    	2413.33
937.5000      	10666.7    	2462
940.0000      	10638.3    	2376
942.5000      	10610.1    	2543
945.0000      	10582    	2435.67
947.5000      	10554.1    	2400.67
950.0000      	10526.3    	2470
952.5000      	10498.7    	2535.67
955.0000      	10471.2    	2499.67
957.5000      	10443.9    	2477
960.0000      	10416.7    	2428.33
962.5000      	10389.6    	2407.67
965.0000      	10362.7    	2451.67
967.5000      	10335.9    	2414.33
970.0000      	10309.3    	2471.33
972.5000      	10282.8    	2408.67
975.0000      	10256.4    	2505.67
977.5000      	10230.2    	2452.67
980.0000      	10204.1    	2470.33
982.5000      	10178.1    	2436.33
985.0000      	10152.3    	2518.33
987.5000      	10126.6    	2442
990.0000      	10101    	2451.33
992.5000      	10075.6    	2404.67
995.0000      	10050.3    	2507.33
997.5000      	10025.1    	2423.67
1000     	10000    	2468