File: DS43_linears_2018-05-29.csv
DS43,,DS43_PL1,,DS43_PLE_490,,DS43_PLE_500,,DS43_PLE_510,,DS43_PLE_520,,DS43_PLE_530,
Wavelength (nm),Abs,Wavelength (nm),Intensity (a.u.),Wavelength (nm),Intensity (a.u.),Wavelength (nm),Intensity (a.u.),Wavelength (nm),Intensity (a.u.),Wavelength (nm),Intensity (a.u.),Wavelength (nm),Intensity (a.u.)
750,0.007411284,460,0.177312,350,32.1596,350,162.963,350,472.988,350,224.532,350,62.6579
747.5,0.006916428,462.53,0.139878,352.46,31.0203,352.46,157.861,352.46,464.733,352.46,219.819,352.46,63.1319
745,0.007865002,465.07,0.341163,355.07,30.3455,355.07,154.354,355.07,449.27,355.07,215.348,355.07,61.749
742.5,0.007206289,467.46,0.422149,357.53,28.9323,357.53,151.741,357.53,443.99,357.53,209.566,357.53,59.4902
740,0.006945387,470,0.639925,360,28.4841,360,146.391,360,424.738,360,200.359,360,57.8794
737.5,0.005818231,472.57,0.9381724,362.46,28.0073,362.46,144.023,362.46,418.513,362.46,199.481,362.46,56.5015
735,0.007513489,475,1.40028,365.07,25.8001,365.07,135.242,365.07,393.428,365.07,186.051,365.07,52.8465
732.5,0.007642457,477.57,2.22266,367.53,24.9255,367.53,129.261,367.53,376.361,367.53,179.385,367.53,51.1384
730,0.007158733,480,3.28947,370,24.4602,370,122.163,370,356.151,370,169.459,370,48.0692
727.5,0.007653681,482.53,5.11867,372.46,23.6828,372.46,118.822,372.46,348.972,372.46,164.674,372.46,46.6816
725,0.007205605,485.07,7.89575,375.07,22.9232,375.07,116.043,375.07,335.95,375.07,159.423,375.07,45.225
722.5,0.008056543,487.46,12.1598,377.53,22.4155,377.53,112.951,377.53,329.959,377.53,155.281,377.53,45.098
720,0.007760317,490,18.7701,380,22.0544,380,110.485,380,320.85,380,151.134,380,43.3652
717.5,0.007578548,492.53,29.3941,382.46,21.461,382.46,109.213,382.46,313.014,382.46,148.003,382.46,42.3727
715,0.006853178,495.07,43.4287,385.07,20.86903,385.07,106.349,385.07,307.771,385.07,144.527,385.07,41.1102
712.5,0.007127392,497.46,63.9921,387.53,20.4095,387.53,104.181,387.53,301.126,387.53,142.408,387.53,41.1287
710,0.007905755,500,95.4256,390,20.0808,390,101.575,390,294.647,390,139.106,390,39.8057
707.5,0.00743738,502.53,140.02,392.57,20.2116,392.57,100.305,392.57,291.066,392.57,137.19,392.57,39.0402
705,0.006695736,505.07,196.119,395,19.6821,395,100.485,395,286.43,395,135.333,395,38.5988
702.5,0.006711588,507.46,248.92,397.57,19.4953,397.57,97.0486,397.57,279.152,397.57,133.234,397.57,36.8987
700,0.007263985,510,275.842,400,18.6246,400,96.2537,400,277.01,400,130.495,400,37.0168
697.5,0.007180471,512.53,265.978,402.46,18.418,402.46,93.5772,402.46,271.234,402.46,127.482,402.46,36.5279
695,0.006625789,515.07,221.232,405.07,18.372,405.07,93.0981,405.07,269.58,405.07,127.593,405.07,36.3096
692.5,0.007393879,517.46,175.091,407.53,17.4584,407.53,89.4664,407.53,260.191,407.53,123.685,407.53,35.0751
690,0.006951463,520,132.553,410,16.9109,410,86.6546,410,253.437,410,119.47,410,34.5145
687.5,0.007001917,522.5,96.2139,412.57,16.6272,412.57,83.4656,412.57,242.882,412.57,114.045,412.57,32.9027
685,0.007325504,525,70.261,415,15.9208,415,79.6503,415,234.335,415,109.601,415,31.397
682.5,0.007730171,527.5,51.3237,417.57,15.0723,417.57,76.228,417.57,223.323,417.57,105.224,417.57,30.1343
680,0.008358539,530,37.47,420,15.0113,420,75.6458,420,217.431,420,102.229,420,29.5116
677.5,0.007547203,532.53,27.9638,422.46,14.6267,422.46,73.2793,422.46,214.187,422.46,101.478,422.46,28.8783
675,0.007807596,535.07,20.8535,425.07,14.2639,425.07,72.7106,425.07,209.751,425.07,99.2704,425.07,28.5371
672.5,0.008185936,537.46,15.3766,427.53,14.1379,427.53,70.4864,427.53,206.097,427.53,97.7034,427.53,27.6044
670,0.006958224,540,11.5889,430,13.1156,430,69.6971,430,201.552,430,95.7663,430,27.1886
667.5,0.007557685,542.5,8.51051,432.57,13.6789,432.57,68.7677,432.57,198.757,432.57,94.0991,432.57,26.84
665,0.008149509,545,6.10064,435,13.4002,435,67.3999,435,195.29,435,93.1656,435,26.6201
662.5,0.006922241,547.5,4.66284,437.57,13.3001,437.57,66.1212,437.57,192.697,437.57,91.7661,437.57,26.0728
660,0.007141207,550,3.53336,440,13.0654,440,64.6793,440,190.417,440,91.2239,440,25.7555
657.5,0.006795984,552.53,2.60388,442.57,12.8974,442.57,65.2007,442.57,189.225,442.57,89.9154,442.57,25.4643
655,0.00737379,555.07,1.8399,445,12.6046,445,63.9091,445,186.592,445,89.1773,445,25.3884
652.5,0.007248112,557.46,1.36377,447.57,12.6303,447.57,64.0764,447.57,187.077,447.57,88.6051,447.57,25.4839
650,0.007124313,560,1.08611,450,12.527,450,64.2871,450,184.843,450,87.6823,450,25.1287
647.5,0.007867243,562.5,0.812207,452.57,12.3762,452.57,63.0149,452.57,187.428,452.57,87.9904,452.57,25.4987
645,0.007770278,565,0.621968,455,12.2621,455,63.1972,455,186.204,455,88.1085,455,25.2062
642.5,0.007533348,567.5,0.404568,457.57,12.1853,457.57,63.4064,457.57,183.387,457.57,87.0011,457.57,24.8358
640,0.007063058,570,0.394494,460,12.2834,460,62.7238,460,183.496,460,88.3986,460,25.1777
637.5,0.007918857,572.46,0.288401,462.53,12.333,462.53,63.1482,462.53,182.876,462.53,87.941,462.53,24.948
635,0.007323451,575.07,0.232688,465.07,12.4293,465.07,62.8816,465.07,183.248,465.07,86.9896,465.07,24.6456
632.5,0.008553782,577.53,0.245341,467.46,11.9158,467.46,62.4658,467.46,184.22,467.46,88.1992,467.46,24.432
630,0.008262151,580,0.250203,470,12.3753,470,62.485,470,182.559,470,86.2007,470,24.7654
627.5,0.007513963,,,,,472.57,61.6744,472.57,182.082,472.57,86.1055,472.57,24.7648
625,0.007883507,,,,,475,61.1845,475,179.871,475,85.9214,475,24.9418
622.5,0.007343776,,,,,477.57,59.9659,477.57,178.26,477.57,85.2673,477.57,24.6449
620,0.007707694,,,,,480,60.4096,480,176.504,480,83.7487,480,24.0542
617.5,0.007846604,,,,,482.57,59.9175,482.57,173.107,482.57,82.3964,482.57,23.9286
615,0.007770278,,,,,485,61.4549,485,179.711,485,85.6125,485,24.4492
612.5,0.008824,,,,,487.57,60.2035,487.57,178.346,487.57,84.215,487.57,23.7612
610,0.006878477,,,,,490,59.9938,490,177.355,490,83.9411,490,23.7667
607.5,0.007310841,,,,,,,492.53,177.284,492.53,85.0415,492.53,24.1056
605,0.008175122,,,,,,,495.07,169.049,495.07,80.7188,495.07,23.2395
602.5,0.008387674,,,,,,,497.46,164.541,497.46,78.3225,497.46,22.6883
600,0.007765456,,,,,,,500,161.497,500,78.0372,500,21.4922
597.5,0.007737022,,,,,,,,,502.53,76.4317,502.53,21.7497
595,0.00834297,,,,,,,,,505.07,73.9691,505.07,21.3905
592.5,0.007767142,,,,,,,,,507.46,65.8098,507.46,18.4066
590,0.008612608,,,,,,,,,510,51.9673,510,14.8367
587.5,0.008565505,,,,,,,,,,,512.53,9.77391
585,0.008579234,,,,,,,,,,,515.07,6.14751
582.5,0.008291094,,,,,,,,,,,517.46,3.1128
580,0.007930061,,,,,,,,,,,520,1.68593
577.5,0.008208121,,,,,,,,,,,,
575,0.009207563,,,,,,,,,,,,
572.5,0.009157541,,,,,,,,,,,,
570,0.00860355,,,,,,,,,,,,
567.5,0.009101841,,,,,,,,,,,,
565,0.009029469,,,,,,,,,,,,
562.5,0.008920276,,,,,,,,,,,,
560,0.009821182,,,,,,,,,,,,
557.5,0.008828993,,,,,,,,,,,,
555,0.00886516,,,,,,,,,,,,
552.5,0.008893509,,,,,,,,,,,,
550,0.009165816,,,,,,,,,,,,
547.5,0.00943369,,,,,,,,,,,,
545,0.009168222,,,,,,,,,,,,
542.5,0.009279621,,,,,,,,,,,,
540,0.009196829,,,,,,,,,,,,
537.5,0.00985428,,,,,,,,,,,,
535,0.009060975,,,,,,,,,,,,
532.5,0.009036791,,,,,,,,,,,,
530,0.009466575,,,,,,,,,,,,
527.5,0.009461653,,,,,,,,,,,,
525,0.009886535,,,,,,,,,,,,
522.5,0.009097849,,,,,,,,,,,,
520,0.01050419,,,,,,,,,,,,
517.5,0.0112175,,,,,,,,,,,,
515,0.01353726,,,,,,,,,,,,
512.5,0.0172144,,,,,,,,,,,,
510,0.0214999,,,,,,,,,,,,
507.5,0.0264813,,,,,,,,,,,,
505,0.0300217,,,,,,,,,,,,
502.5,0.0305181,,,,,,,,,,,,
500,0.03130731,,,,,,,,,,,,
497.5,0.0315542,,,,,,,,,,,,
495,0.0333214,,,,,,,,,,,,
492.5,0.0340649,,,,,,,,,,,,
490,0.034051,,,,,,,,,,,,
487.5,0.0352327,,,,,,,,,,,,
485,0.0344457,,,,,,,,,,,,
482.5,0.0353767,,,,,,,,,,,,
480,0.0352976,,,,,,,,,,,,
477.5,0.03557609,,,,,,,,,,,,
475,0.0356853,,,,,,,,,,,,
472.5,0.0369009,,,,,,,,,,,,
470,0.0370559,,,,,,,,,,,,
467.5,0.0374077,,,,,,,,,,,,
465,0.0381618,,,,,,,,,,,,
462.5,0.03817074,,,,,,,,,,,,
460,0.0393779,,,,,,,,,,,,
457.5,0.0392344,,,,,,,,,,,,
455,0.0406977,,,,,,,,,,,,
452.5,0.0408109,,,,,,,,,,,,
450,0.0416326,,,,,,,,,,,,
447.5,0.04207851,,,,,,,,,,,,
445,0.0420461,,,,,,,,,,,,
442.5,0.0442856,,,,,,,,,,,,
440,0.0440946,,,,,,,,,,,,
437.5,0.0448032,,,,,,,,,,,,
435,0.0459524,,,,,,,,,,,,
432.5,0.0463221,,,,,,,,,,,,
430,0.0483272,,,,,,,,,,,,
427.5,0.04907874,,,,,,,,,,,,
425,0.050772,,,,,,,,,,,,
422.5,0.0509029,,,,,,,,,,,,
420,0.0522869,,,,,,,,,,,,
417.5,0.0537248,,,,,,,,,,,,
415,0.0558872,,,,,,,,,,,,
412.5,0.05790773,,,,,,,,,,,,
410,0.06030428,,,,,,,,,,,,
407.5,0.0621018,,,,,,,,,,,,
405,0.0632687,,,,,,,,,,,,
402.5,0.065263,,,,,,,,,,,,
400,0.065606,,,,,,,,,,,,
397.5,0.0668386,,,,,,,,,,,,
395,0.0687616,,,,,,,,,,,,
392.5,0.06836392,,,,,,,,,,,,
390,0.0699887,,,,,,,,,,,,
387.5,0.0708015,,,,,,,,,,,,
385,0.0728668,,,,,,,,,,,,
382.5,0.07452134,,,,,,,,,,,,
380,0.0770544,,,,,,,,,,,,
377.5,0.07821279,,,,,,,,,,,,
375,0.080293,,,,,,,,,,,,
372.5,0.0835687,,,,,,,,,,,,
370,0.0856129,,,,,,,,,,,,
367.5,0.0888618,,,,,,,,,,,,
365,0.0931535,,,,,,,,,,,,
362.5,0.0974698,,,,,,,,,,,,
360,0.101125,,,,,,,,,,,,
357.5,0.103838,,,,,,,,,,,,
355,0.105759,,,,,,,,,,,,
352.5,0.107576,,,,,,,,,,,,
350,0.111365,,,,,,,,,,,,